# Response curve for the HST NH3 1.53um curve
#  
# Wavelength(micron)  Throughput
0.3         0.
1.123784 	0.0004
1.123876 	0.000404
1.123967 	0.000408
1.124058 	0.000412
1.124149 	0.000415
1.12424	     0.000419
1.124332 	0.000423
1.124423 	0.000427
1.124514 	0.00043
1.124605 	0.000434
1.124696 	0.000438
1.124788 	0.000442
1.124879 	0.000445
1.12497	     0.000449
1.125061 	0.000453
1.125153 	0.000457
1.125244 	0.000461
1.125335 	0.000461
1.125427 	0.000453
1.125518 	0.000446
1.125609 	0.000438
1.1257	     0.000431
1.125792 	0.000423
1.125883 	0.000416
1.125974 	0.000408
1.126066 	0.000401
1.126157 	0.000393
1.126248 	0.000386
1.12634	     0.000378
1.126431 	0.000371
1.126523 	0.000363
1.126614 	0.000356
1.126705 	0.000348
1.126797 	0.000341
1.126888 	0.000333
1.12698	     0.000326
1.127071 	0.000318
1.127162 	0.000311
1.127254 	0.000303
1.127345 	0.000296
1.127437 	0.000288
1.127528 	0.000281
1.12762	     0.000273
1.127711 	0.000266
1.127803 	0.000258
1.127894 	0.000251
1.127986 	0.000243
1.128077 	0.000236
1.128169 	0.000228
1.12826	     0.000221
1.128352 	0.000213
1.128443 	0.000206
1.128535 	0.000198
1.128626 	0.00019
1.128718 	0.000183
1.128809 	0.000175
1.128901 	0.000168
1.128993 	0.00016
1.129084 	0.000153
1.129176 	0.000145
1.129267 	0.000138
1.129359 	0.00013
1.129451 	0.000122
1.129542 	0.000115
1.129634 	0.000107
1.129725 	0.0001
1.129817 	0.000092
1.129909 	0.000085
1.13	     0.000077
1.130092 	0.00007
1.130184 	0.000062
1.130275 	0.000054
1.130367 	0.000052
1.130459 	0.000053
1.130551 	0.000054
1.130642 	0.000055
1.130734 	0.000056
1.130826 	0.000057
1.130917 	0.000058
1.131009 	0.000059
1.131101 	0.00006
1.131193 	0.000061
1.131285 	0.000062
1.131376 	0.000063
1.131468 	0.000064
1.13156	     0.000065
1.131652 	0.000066
1.131743 	0.000066
1.131835 	0.000067
1.131927 	0.000068
1.132019 	0.000069
1.132111 	0.00007
1.132203 	0.000071
1.132294 	0.000072
1.132386 	0.000073
1.132478 	0.000074
1.13257	     0.000075
1.132662 	0.000076
1.132754 	0.000077
1.132846 	0.000078
1.132938 	0.000079
1.133029 	0.00008
1.133121 	0.000081
1.133213 	0.000082
1.133305 	0.000083
1.133397 	0.000084
1.133489 	0.000085
1.133581 	0.000086
1.133673 	0.000087
1.133765 	0.000087
1.133857 	0.000088
1.133949 	0.000089
1.134041 	0.00009
1.134133 	0.000091
1.134225 	0.000092
1.134317 	0.000093
1.134409 	0.000094
1.134501 	0.000095
1.134593 	0.000096
1.134685 	0.000097
1.134777 	0.000098
1.134869 	0.000099
1.134961 	0.0001
1.135053 	0.000101
1.135145 	0.000102
1.135237 	0.000103
1.13533	     0.000104
1.135422 	0.000107
1.135514 	0.00011
1.135606 	0.000113
1.135698 	0.000116
1.13579	     0.000118
1.135882 	0.000121
1.135974 	0.000124
1.136067 	0.000127
1.136159 	0.00013
1.136251 	0.000133
1.136343 	0.000136
1.136435 	0.000139
1.136527 	0.000141
1.13662	     0.000144
1.136712 	0.000147
1.136804 	0.00015
1.136896 	0.000153
1.136989 	0.000156
1.137081 	0.000159
1.137173 	0.000162
1.137265 	0.000164
1.137358 	0.000167
1.13745	     0.00017
1.137542 	0.000173
1.137634 	0.000176
1.137727 	0.000179
1.137819 	0.000182
1.137911 	0.000184
1.138004 	0.000187
1.138096 	0.00019
1.138188 	0.000193
1.13828	     0.000196
1.138373 	0.000199
1.138465 	0.000202
1.138558 	0.000205
1.13865	     0.000208
1.138742 	0.000211
1.138835 	0.000213
1.138927 	0.000216
1.139019 	0.000219
1.139112 	0.000222
1.139204 	0.000225
1.139297 	0.000228
1.139389 	0.000231
1.139482 	0.000234
1.139574 	0.000237
1.139666 	0.000239
1.139759 	0.000242
1.139851 	0.000245
1.139944 	0.000248
1.140036 	0.000251
1.140129 	0.000254
1.140221 	0.000257
1.140314 	0.00026
1.140406 	0.000258
1.140499 	0.000256
1.140591 	0.000254
1.140684 	0.000252
1.140776 	0.00025
1.140869 	0.000248
1.140961 	0.000246
1.141054 	0.000244
1.141147 	0.000242
1.141239 	0.00024
1.141332 	0.000239
1.141424 	0.000237
1.141517 	0.000235
1.141609 	0.000233
1.141702 	0.000231
1.141795 	0.000229
1.141887 	0.000227
1.14198	     0.000225
1.142073 	0.000223
1.142165 	0.000221
1.142258 	0.000219
1.142351 	0.000217
1.142443 	0.000216
1.142536 	0.000214
1.142629 	0.000212
1.142721 	0.00021
1.142814 	0.000208
1.142907 	0.000206
1.142999 	0.000204
1.143092 	0.000202
1.143185 	0.0002
1.143278 	0.000198
1.14337	     0.000196
1.143463 	0.000194
1.143556 	0.000193
1.143649 	0.000191
1.143741 	0.000189
1.143834 	0.000187
1.143927 	0.000185
1.14402	     0.000183
1.144113 	0.000181
1.144205 	0.000179
1.144298 	0.000177
1.144391 	0.000175
1.144484 	0.000173
1.144577 	0.000171
1.14467	     0.00017
1.144762 	0.000168
1.144855 	0.000166
1.144948 	0.000164
1.145041 	0.000162
1.145134 	0.00016
1.145227 	0.000158
1.14532	     0.000156
1.145413 	0.000157
1.145506 	0.000158
1.145599 	0.000159
1.145691 	0.00016
1.145784 	0.000161
1.145877 	0.000162
1.14597	     0.000163
1.146063 	0.000164
1.146156 	0.000165
1.146249 	0.000166
1.146342 	0.000167
1.146435 	0.000168
1.146528 	0.000169
1.146621 	0.00017
1.146714 	0.000171
1.146807 	0.000172
1.1469	     0.000173
1.146993 	0.000174
1.147086 	0.000175
1.147179 	0.000176
1.147272 	0.000177
1.147366 	0.000178
1.147459 	0.000179
1.147552 	0.00018
1.147645 	0.000181
1.147738 	0.000182
1.147831 	0.000183
1.147924 	0.000184
1.148017 	0.000185
1.14811	 0.000186
1.148204 	0.000187
1.148297 	0.000188
1.14839	 0.000189
1.148483 	0.00019
1.148576 	0.00019
1.148669 	0.000191
1.148762 	0.000192
1.148856 	0.000193
1.148949 	0.000194
1.149042 	0.000195
1.149135 	0.000196
1.149229 	0.000197
1.149322 	0.000198
1.149415 	0.000199
1.149508 	0.0002
1.149601 	0.000201
1.149695 	0.000202
1.149788 	0.000203
1.149881 	0.000204
1.149975 	0.000205
1.150068 	0.000206
1.150161 	0.000207
1.150254 	0.000208
1.150348 	0.000209
1.150441 	0.000209
1.150534 	0.000209
1.150628 	0.000209
1.150721 	0.000209
1.150814 	0.000209
1.150908 	0.000209
1.151001 	0.000209
1.151095 	0.000209
1.151188 	0.000209
1.151281 	0.000209
1.151375 	0.000209
1.151468 	0.000209
1.151562 	0.000209
1.151655 	0.000209
1.151748 	0.000209
1.151842 	0.000209
1.151935 	0.000209
1.152029 	0.000209
1.152122 	0.000209
1.152216 	0.000209
1.152309 	0.000209
1.152403 	0.000209
1.152496 	0.000209
1.15259	 0.000209
1.152683 	0.000209
1.152777 	0.000209
1.15287	 0.000209
1.152964 	0.000209
1.153057 	0.000209
1.153151 	0.000209
1.153244 	0.000209
1.153338 	0.000209
1.153431 	0.000209
1.153525 	0.000209
1.153618 	0.000209
1.153712 	0.000209
1.153806 	0.000209
1.153899 	0.000209
1.153993 	0.000209
1.154086 	0.000209
1.15418	 0.000209
1.154274 	0.000209
1.154367 	0.000209
1.154461 	0.000209
1.154555 	0.000209
1.154648 	0.000209
1.154742 	0.000209
1.154836 	0.000209
1.154929 	0.000209
1.155023 	0.000209
1.155117 	0.000209
1.15521	 0.000209
1.155304 	0.000209
1.155398 	0.000209
1.155492 	0.000208
1.155585 	0.000207
1.155679 	0.000206
1.155773 	0.000205
1.155867 	0.000204
1.15596	 0.000203
1.156054 	0.000202
1.156148 	0.000201
1.156242 	0.0002
1.156335 	0.000199
1.156429 	0.000198
1.156523 	0.000197
1.156617 	0.000196
1.156711 	0.000195
1.156805 	0.000194
1.156898 	0.000193
1.156992 	0.000192
1.157086 	0.000191
1.15718	 0.00019
1.157274 	0.000189
1.157368 	0.000188
1.157462 	0.000187
1.157556 	0.000186
1.157649 	0.000185
1.157743 	0.000184
1.157837 	0.000183
1.157931 	0.000182
1.158025 	0.000181
1.158119 	0.00018
1.158213 	0.000179
1.158307 	0.000178
1.158401 	0.000177
1.158495 	0.000176
1.158589 	0.000175
1.158683 	0.000174
1.158777 	0.000173
1.158871 	0.000172
1.158965 	0.000172
1.159059 	0.000171
1.159153 	0.00017
1.159247 	0.000169
1.159341 	0.000168
1.159435 	0.000167
1.159529 	0.000166
1.159623 	0.000165
1.159717 	0.000164
1.159811 	0.000163
1.159905 	0.000162
1.16	 0.000161
1.160094 	0.00016
1.160188 	0.000159
1.160282 	0.000158
1.160376 	0.000157
1.16047	 0.000156
1.160564 	0.000155
1.160658 	0.000154
1.160753 	0.000153
1.160847 	0.000152
1.160941 	0.000151
1.161035 	0.00015
1.161129 	0.000149
1.161223 	0.000148
1.161318 	0.000147
1.161412 	0.000146
1.161506 	0.000145
1.1616	 0.000144
1.161695 	0.000143
1.161789 	0.000142
1.161883 	0.000141
1.161977 	0.00014
1.162071 	0.000139
1.162166 	0.000138
1.16226	 0.000137
1.162354 	0.000136
1.162449 	0.000135
1.162543 	0.000134
1.162637 	0.000133
1.162732 	0.000132
1.162826 	0.000131
1.16292	 0.00013
1.163015 	0.000129
1.163109 	0.000128
1.163203 	0.000127
1.163298 	0.000126
1.163392 	0.000125
1.163486 	0.000124
1.163581 	0.000124
1.163675 	0.000123
1.16377	 0.000122
1.163864 	0.000121
1.163958 	0.00012
1.164053 	0.000119
1.164147 	0.000118
1.164242 	0.000117
1.164336 	0.000116
1.164431 	0.000115
1.164525 	0.000114
1.16462	 0.000113
1.164714 	0.000112
1.164808 	0.000111
1.164903 	0.00011
1.164997 	0.000109
1.165092 	0.000108
1.165186 	0.000107
1.165281 	0.000106
1.165375 	0.000105
1.16547	 0.000104
1.165565 	0.000103
1.165659 	0.000102
1.165754 	0.000101
1.165848 	0.0001
1.165943 	0.000099
1.166037 	0.000098
1.166132 	0.000097
1.166227 	0.000096
1.166321 	0.000095
1.166416 	0.000094
1.16651	 0.000093
1.166605 	0.000092
1.1667	 0.000091
1.166794 	0.00009
1.166889 	0.000089
1.166984 	0.000088
1.167078 	0.000087
1.167173 	0.000086
1.167268 	0.000085
1.167362 	0.000084
1.167457 	0.000083
1.167552 	0.000082
1.167647 	0.000081
1.167741 	0.00008
1.167836 	0.000079
1.167931 	0.000078
1.168025 	0.000077
1.16812	 0.000076
1.168215 	0.000075
1.16831	 0.000074
1.168405 	0.000073
1.168499 	0.000072
1.168594 	0.000071
1.168689 	0.00007
1.168784 	0.000069
1.168879 	0.000068
1.168973 	0.000067
1.169068 	0.000066
1.169163 	0.000065
1.169258 	0.000064
1.169353 	0.000063
1.169448 	0.000062
1.169542 	0.000061
1.169637 	0.00006
1.169732 	0.000059
1.169827 	0.000058
1.169922 	0.000057
1.170017 	0.000056
1.170112 	0.000055
1.170207 	0.000054
1.170302 	0.000053
1.170397 	0.000053
1.170492 	0.000054
1.170587 	0.000054
1.170681 	0.000055
1.170776 	0.000055
1.170871 	0.000056
1.170966 	0.000056
1.171061 	0.000057
1.171156 	0.000057
1.171251 	0.000058
1.171346 	0.000058
1.171441 	0.000059
1.171537 	0.000059
1.171632 	0.00006
1.171727 	0.00006
1.171822 	0.000061
1.171917 	0.000061
1.172012 	0.000062
1.172107 	0.000062
1.172202 	0.000063
1.172297 	0.000063
1.172392 	0.000064
1.172487 	0.000064
1.172582 	0.000065
1.172677 	0.000065
1.172773 	0.000066
1.172868 	0.000066
1.172963 	0.000067
1.173058 	0.000067
1.173153 	0.000068
1.173248 	0.000068
1.173344 	0.000069
1.173439 	0.000069
1.173534 	0.00007
1.173629 	0.00007
1.173724 	0.000071
1.17382	 0.000071
1.173915 	0.000072
1.17401	 0.000072
1.174105 	0.000073
1.1742	 0.000073
1.174296 	0.000074
1.174391 	0.000075
1.174486 	0.000075
1.174582 	0.000076
1.174677 	0.000076
1.174772 	0.000077
1.174867 	0.000077
1.174963 	0.000078
1.175058 	0.000078
1.175153 	0.000079
1.175249 	0.000079
1.175344 	0.00008
1.175439 	0.00008
1.175535 	0.000081
1.17563	 0.000081
1.175725 	0.000082
1.175821 	0.000082
1.175916 	0.000083
1.176012 	0.000083
1.176107 	0.000084
1.176202 	0.000084
1.176298 	0.000085
1.176393 	0.000085
1.176489 	0.000086
1.176584 	0.000086
1.17668	 0.000087
1.176775 	0.000087
1.176871 	0.000088
1.176966 	0.000088
1.177061 	0.000089
1.177157 	0.000089
1.177252 	0.00009
1.177348 	0.00009
1.177443 	0.000091
1.177539 	0.000091
1.177634 	0.000092
1.17773	 0.000092
1.177826 	0.000093
1.177921 	0.000093
1.178017 	0.000094
1.178112 	0.000094
1.178208 	0.000095
1.178303 	0.000095
1.178399 	0.000096
1.178495 	0.000096
1.17859	 0.000097
1.178686 	0.000097
1.178781 	0.000098
1.178877 	0.000099
1.178973 	0.000099
1.179068 	0.0001
1.179164 	0.0001
1.17926	 0.000101
1.179355 	0.000101
1.179451 	0.000102
1.179547 	0.000102
1.179642 	0.000103
1.179738 	0.000103
1.179834 	0.000104
1.179929 	0.000104
1.180025 	0.000105
1.180121 	0.000105
1.180217 	0.000106
1.180312 	0.000106
1.180408 	0.000106
1.180504 	0.000106
1.1806	 0.000106
1.180695 	0.000106
1.180791 	0.000106
1.180887 	0.000106
1.180983 	0.000106
1.181079 	0.000106
1.181174 	0.000106
1.18127	 0.000106
1.181366 	0.000106
1.181462 	0.000106
1.181558 	0.000106
1.181654 	0.000106
1.181749 	0.000106
1.181845 	0.000106
1.181941 	0.000106
1.182037 	0.000106
1.182133 	0.000106
1.182229 	0.000106
1.182325 	0.000106
1.182421 	0.000106
1.182517 	0.000106
1.182612 	0.000106
1.182708 	0.000106
1.182804 	0.000106
1.1829	 0.000106
1.182996 	0.000106
1.183092 	0.000106
1.183188 	0.000106
1.183284 	0.000106
1.18338	 0.000106
1.183476 	0.000106
1.183572 	0.000106
1.183668 	0.000106
1.183764 	0.000106
1.18386	 0.000106
1.183956 	0.000106
1.184052 	0.000106
1.184148 	0.000106
1.184244 	0.000106
1.184341 	0.000106
1.184437 	0.000106
1.184533 	0.000106
1.184629 	0.000106
1.184725 	0.000106
1.184821 	0.000107
1.184917 	0.000107
1.185013 	0.000107
1.185109 	0.000107
1.185205 	0.000107
1.185302 	0.000107
1.185398 	0.000108
1.185494 	0.00011
1.18559	 0.000112
1.185686 	0.000114
1.185783 	0.000116
1.185879 	0.000118
1.185975 	0.000121
1.186071 	0.000123
1.186167 	0.000125
1.186264 	0.000127
1.18636	 0.000129
1.186456 	0.000131
1.186552 	0.000133
1.186649 	0.000135
1.186745 	0.000137
1.186841 	0.000139
1.186937 	0.000141
1.187034 	0.000143
1.18713	 0.000145
1.187226 	0.000147
1.187323 	0.000149
1.187419 	0.000151
1.187515 	0.000153
1.187612 	0.000155
1.187708 	0.000158
1.187804 	0.00016
1.187901 	0.000162
1.187997 	0.000164
1.188093 	0.000166
1.18819	 0.000168
1.188286 	0.00017
1.188382 	0.000172
1.188479 	0.000174
1.188575 	0.000176
1.188672 	0.000178
1.188768 	0.00018
1.188865 	0.000182
1.188961 	0.000184
1.189057 	0.000186
1.189154 	0.000189
1.18925	 0.000191
1.189347 	0.000193
1.189443 	0.000195
1.18954	 0.000197
1.189636 	0.000199
1.189733 	0.000201
1.189829 	0.000203
1.189926 	0.000205
1.190022 	0.000207
1.190119 	0.000209
1.190216 	0.000211
1.190312 	0.000213
1.190409 	0.000214
1.190505 	0.000214
1.190602 	0.000214
1.190698 	0.000214
1.190795 	0.000214
1.190892 	0.000214
1.190988 	0.000214
1.191085 	0.000214
1.191181 	0.000214
1.191278 	0.000214
1.191375 	0.000214
1.191471 	0.000214
1.191568 	0.000214
1.191665 	0.000214
1.191761 	0.000214
1.191858 	0.000214
1.191955 	0.000214
1.192051 	0.000214
1.192148 	0.000214
1.192245 	0.000214
1.192342 	0.000214
1.192438 	0.000214
1.192535 	0.000214
1.192632 	0.000214
1.192728 	0.000214
1.192825 	0.000214
1.192922 	0.000214
1.193019 	0.000214
1.193116 	0.000214
1.193212 	0.000214
1.193309 	0.000214
1.193406 	0.000214
1.193503 	0.000214
1.1936	 0.000214
1.193696 	0.000214
1.193793 	0.000214
1.19389	 0.000214
1.193987 	0.000214
1.194084 	0.000214
1.194181 	0.000214
1.194277 	0.000214
1.194374 	0.000214
1.194471 	0.000214
1.194568 	0.000214
1.194665 	0.000214
1.194762 	0.000214
1.194859 	0.000214
1.194956 	0.000214
1.195053 	0.000214
1.19515	 0.000214
1.195247 	0.000214
1.195344 	0.000214
1.195441 	0.000213
1.195538 	0.000212
1.195635 	0.000211
1.195732 	0.00021
1.195829 	0.000209
1.195926 	0.000208
1.196023 	0.000207
1.19612	 0.000206
1.196217 	0.000205
1.196314 	0.000204
1.196411 	0.000203
1.196508 	0.000202
1.196605 	0.0002
1.196702 	0.000199
1.196799 	0.000198
1.196896 	0.000197
1.196993 	0.000196
1.19709	 0.000195
1.197187 	0.000194
1.197284 	0.000193
1.197382 	0.000192
1.197479 	0.000191
1.197576 	0.00019
1.197673 	0.000189
1.19777	 0.000188
1.197867 	0.000187
1.197965 	0.000186
1.198062 	0.000185
1.198159 	0.000184
1.198256 	0.000183
1.198353 	0.000182
1.198451 	0.000181
1.198548 	0.00018
1.198645 	0.000179
1.198742 	0.000178
1.198839 	0.000177
1.198937 	0.000176
1.199034 	0.000175
1.199131 	0.000174
1.199229 	0.000173
1.199326 	0.000172
1.199423 	0.000171
1.19952	 0.00017
1.199618 	0.000169
1.199715 	0.000167
1.199812 	0.000166
1.19991	 0.000165
1.200007 	0.000164
1.200104 	0.000163
1.200202 	0.000162
1.200299 	0.000161
1.200396 	0.000162
1.200494 	0.000165
1.200591 	0.000167
1.200689 	0.000169
1.200786 	0.000171
1.200883 	0.000173
1.200981 	0.000175
1.201078 	0.000177
1.201176 	0.000179
1.201273 	0.000181
1.201371 	0.000183
1.201468 	0.000185
1.201566 	0.000188
1.201663 	0.00019
1.20176	 0.000192
1.201858 	0.000194
1.201955 	0.000196
1.202053 	0.000198
1.20215	 0.0002
1.202248 	0.000202
1.202346 	0.000204
1.202443 	0.000207
1.202541 	0.000209
1.202638 	0.000211
1.202736 	0.000213
1.202833 	0.000215
1.202931 	0.000217
1.203029 	0.000219
1.203126 	0.000221
1.203224 	0.000223
1.203321 	0.000226
1.203419 	0.000228
1.203517 	0.00023
1.203614 	0.000232
1.203712 	0.000234
1.203809 	0.000236
1.203907 	0.000238
1.204005 	0.00024
1.204102 	0.000242
1.2042	 0.000245
1.204298 	0.000247
1.204396 	0.000249
1.204493 	0.000251
1.204591 	0.000253
1.204689 	0.000255
1.204786 	0.000257
1.204884 	0.000259
1.204982 	0.000261
1.20508	 0.000264
1.205177 	0.000266
1.205275 	0.000268
1.205373 	0.000269
1.205471 	0.000269
1.205568 	0.00027
1.205666 	0.00027
1.205764 	0.000271
1.205862 	0.000271
1.20596	 0.000271
1.206058 	0.000272
1.206155 	0.000272
1.206253 	0.000272
1.206351 	0.000273
1.206449 	0.000273
1.206547 	0.000274
1.206645 	0.000274
1.206743 	0.000274
1.20684	 0.000275
1.206938 	0.000275
1.207036 	0.000275
1.207134 	0.000276
1.207232 	0.000276
1.20733	 0.000277
1.207428 	0.000277
1.207526 	0.000277
1.207624 	0.000278
1.207722 	0.000278
1.20782	 0.000278
1.207918 	0.000279
1.208016 	0.000279
1.208114 	0.000279
1.208212 	0.00028
1.20831	 0.00028
1.208408 	0.000281
1.208506 	0.000281
1.208604 	0.000281
1.208702 	0.000282
1.2088	 0.000282
1.208898 	0.000282
1.208996 	0.000283
1.209094 	0.000283
1.209192 	0.000283
1.20929	 0.000284
1.209388 	0.000284
1.209487 	0.000285
1.209585 	0.000285
1.209683 	0.000285
1.209781 	0.000286
1.209879 	0.000286
1.209977 	0.000286
1.210075 	0.000287
1.210174 	0.000287
1.210272 	0.000288
1.21037	 0.000288
1.210468 	0.000288
1.210566 	0.000289
1.210665 	0.000289
1.210763 	0.000289
1.210861 	0.00029
1.210959 	0.00029
1.211057 	0.000291
1.211156 	0.000291
1.211254 	0.000291
1.211352 	0.000292
1.21145	 0.000292
1.211549 	0.000292
1.211647 	0.000293
1.211745 	0.000293
1.211844 	0.000294
1.211942 	0.000294
1.21204	 0.000294
1.212139 	0.000295
1.212237 	0.000295
1.212335 	0.000295
1.212434 	0.000296
1.212532 	0.000296
1.21263	 0.000296
1.212729 	0.000297
1.212827 	0.000297
1.212925 	0.000298
1.213024 	0.000298
1.213122 	0.000298
1.213221 	0.000299
1.213319 	0.000299
1.213417 	0.000299
1.213516 	0.0003
1.213614 	0.0003
1.213713 	0.000301
1.213811 	0.000301
1.21391	 0.000301
1.214008 	0.000302
1.214107 	0.000302
1.214205 	0.000302
1.214304 	0.000303
1.214402 	0.000303
1.214501 	0.000304
1.214599 	0.000304
1.214698 	0.000304
1.214796 	0.000305
1.214895 	0.000305
1.214993 	0.000306
1.215092 	0.000306
1.215191 	0.000306
1.215289 	0.000307
1.215388 	0.000307
1.215486 	0.000307
1.215585 	0.000308
1.215683 	0.000308
1.215782 	0.000309
1.215881 	0.000309
1.215979 	0.000309
1.216078 	0.00031
1.216177 	0.00031
1.216275 	0.00031
1.216374 	0.000311
1.216473 	0.000311
1.216571 	0.000311
1.21667	 0.000312
1.216769 	0.000312
1.216867 	0.000313
1.216966 	0.000313
1.217065 	0.000313
1.217164 	0.000314
1.217262 	0.000314
1.217361 	0.000314
1.21746	 0.000315
1.217559 	0.000315
1.217657 	0.000316
1.217756 	0.000316
1.217855 	0.000316
1.217954 	0.000317
1.218053 	0.000317
1.218151 	0.000317
1.21825	 0.000318
1.218349 	0.000318
1.218448 	0.000319
1.218547 	0.000319
1.218646 	0.000319
1.218744 	0.00032
1.218843 	0.00032
1.218942 	0.000321
1.219041 	0.000321
1.21914	 0.000321
1.219239 	0.000322
1.219338 	0.000322
1.219437 	0.000322
1.219536 	0.000323
1.219635 	0.000323
1.219733 	0.000324
1.219832 	0.000324
1.219931 	0.000324
1.22003	 0.000325
1.220129 	0.000325
1.220228 	0.000325
1.220327 	0.000326
1.220426 	0.000324
1.220525 	0.000322
1.220624 	0.00032
1.220723 	0.000317
1.220822 	0.000315
1.220921 	0.000313
1.22102	 0.000311
1.221119 	0.000309
1.221219 	0.000307
1.221318 	0.000305
1.221417 	0.000302
1.221516 	0.0003
1.221615 	0.000298
1.221714 	0.000296
1.221813 	0.000294
1.221912 	0.000292
1.222011 	0.00029
1.22211	 0.000288
1.22221	 0.000285
1.222309 	0.000283
1.222408 	0.000281
1.222507 	0.000279
1.222606 	0.000277
1.222705 	0.000275
1.222805 	0.000273
1.222904 	0.00027
1.223003 	0.000268
1.223102 	0.000266
1.223201 	0.000264
1.223301 	0.000262
1.2234	 0.00026
1.223499 	0.000258
1.223598 	0.000255
1.223698 	0.000253
1.223797 	0.000251
1.223896 	0.000249
